*TYPE		=  Raw
*CLASS		=  ASCII CLASS
*SAMPLE		=  
*COMMENT	=  
*FNAME		=  
*DATE		=  25-Sep-22 13:21

*GROUP_COUNT	=  1
*GONIO		=  Standard, 300
*ATTACHMENT	=  
*ASC		=  0, 0, 0.000000, 0.000000
*I_MONOCHRO	=  IPS_adaptor, 0.000000
*FILTER		=  None
*SLIT_NAME	=  0, IncidentSlitBox
*SLIT_NAME	=  1, ReceivingSlitBox1
*SLIT_NAME	=  2, ReceivingSlitBox2
*COUNTER	=  HyPix3000(H), 0
*POS_FORMAT	=  0
*SCAN_AXIS	=  2theta/theta
*MEAS_MODE	=  Continuous Scanning
*TARGET		=  29
*XRAY_CHAR	=  K-ALPHA
*WAVE_LENGTH1	=  1.54059
*WAVE_LENGTH2	=  1.54441
*THICKNESS	=  0, 0.000000
*MU		=  0, 0.000000
*SCAN_MODE	=  2theta/theta
*SPEED_DIM	=  sec./step
*XUNIT		=  deg.
*YUNIT		=  counts
*SCALE_MODE	=  1
*REP_COUNT	=  0
*SE_COUNT	=  0
*STD_MATERIAL	=  Unknown, Unknown, 0.000000, 0.000000, 0.000000, 0.000000, 0.000000, 0.000000
*LATT_CONS	=  0, Unknown, Unknown, 0.000000, 0.000000, 0.000000, 0.000000, 0.000000, 0.000000
*SEC_COUNT	=  1
*TSPEC_SIZE	=  0
*EXTRA_SIZE	=  0
*MEMO		=  

*BEGIN
*GROUP		=  0
*START		=  3
*STOP		=  90
*STEP		=  0.02
*OFFSET		=  0.000000
*SPEED		=  1.2
*SLIT_SPEC	=  0, 0.050mm, 0.000000, 0.000000
*SLIT_SPEC	=  1, 0.250mm, 0.000000, 0.000000
*SLIT_SPEC	=  2, 0.300mm, 0.000000, 0.000000
*KV		=  45
*MA		=  200
*LOW		=  0.000000
*HIGH		=  0.000000
*CTEMPER	=  0, 0.000000
*CTEMPER	=  1, 0.000000
*CTEMPER	=  2, 0.000000
*PAREX		=  0, 0.000000
*PAREX		=  1, 0.000000
*PAREX		=  2, 0.000000
*PAREX		=  3, 0.000000
*PAREX		=  4, 0.000000
*PAREX		=  5, 0.000000
*PAREX		=  6, 0.000000
*PAREX		=  7, 0.000000
*PAREX		=  8, 0.000000
*PAREX		=  9, 0.000000
*PAREX		=  10, 0.000000
*PAREX		=  11, 0.000000
*PAREX		=  12, 0.000000
*PAREX		=  13, 0.000000
*PAREX		=  14, 0.000000
*PAREX		=  15, 0.000000
*FULL_SCALE	=  0.000000
*INDEX		=  0, 0, 0
*COUNT		=  4351
24428.3, 23516.5, 22567.2, 21876.4
21456.4, 20342.8, 19952.1, 19235.4
19043.5, 18274.4, 17624, 16968.7
16481.5, 16217, 15410.2, 14744.6
14699, 14360.8, 13816.4, 13480.7
13028, 12826.5, 12367.1, 12228.1
11818.2, 11578.8, 11425.7, 10926.4
10970.1, 10483.2, 10390, 10042.4
10074.9, 9562.54, 9503.04, 9139.31
9047.52, 8913.77, 8612.59, 8419.92
8213.09, 8021.59, 7782.17, 7831.65
7525.3, 7281.67, 7210.11, 7047.29
6892.64, 6746.07, 6495.51, 6309.66
6266.72, 6129.09, 5889.63, 5715.17
5525.89, 5505.08, 5397.21, 5248.97
5254.68, 4974, 4956.71, 4807.42
4620.14, 4470.96, 4460.68, 4375.78
4155.02, 4081.56, 3959.16, 3952.44
3727.26, 3734.32, 3644.25, 3486.14
3509.3, 3454.96, 3268.74, 3288.51
3342.63, 3064.2, 3058.71, 2901.18
2837.38, 2800.29, 2781.25, 2758.03
2596.51, 2595.1, 2578.63, 2430.67
2341.55, 2514.57, 2328.17, 2166.24
2257.99, 2192.19, 2119.41, 2067.8
2151.97, 2043.86, 2007.86, 1879.17
1906.7, 1849.11, 1771.77, 1795.31
1818.29, 1708.73, 1685.71, 1692.04
1618.9, 1584.03, 1551.34, 1606.44
1582.6, 1551.3, 1582.14, 1426.2
1455.02, 1386.62, 1327.75, 1394.72
1306.25, 1341.29, 1327.6, 1255.84
1231.05, 1262.95, 1224.93, 1169.55
1259.58, 1143.38, 1186.43, 1159.53
1133.17, 1059.11, 1109.11, 1092.45
1060.82, 1031.6, 956.067, 1064.24
942.37, 1023.07, 964.35, 962.327
891.615, 934.195, 883.622, 919.001
832.992, 867.956, 805.115, 842.728
824.881, 806.754, 710.311, 756.534
772.811, 720.572, 673.564, 731.692
718.1, 662.971, 682.792, 647.058
668.608, 659.89, 688.656, 648.948
561.731, 634.343, 573.182, 608.352
607.011, 571.035, 560.077, 564.146
524.584, 593.436, 557.636, 511.001
523.413, 487.779, 501.463, 493.945
544.255, 477.589, 470.808, 468.451
473.772, 453.014, 423.831, 443.733
395.724, 422.543, 423.209, 434.429
418.854, 403.1, 406.001, 385.75
375.93, 404.863, 381.041, 361.44
377.818, 343.682, 362.518, 359.652
347.934, 317.288, 337.724, 334.943
338.463, 337.01, 310.221, 313.348
306.537, 298.957, 318.107, 304.199
321.194, 311.546, 289.035, 278.667
285.245, 259.524, 261.868, 252.37
274.016, 271.123, 259.805, 267.885
273.096, 247.164, 248.71, 257.558
224.546, 226.062, 258.322, 266.316
210.376, 228.072, 224.299, 215.819
251.338, 237.195, 228.176, 232.325
180.766, 196.942, 222.823, 212.694
222.012, 223.816, 199.378, 248.956
233.174, 217.998, 216.098, 212.709
222.72, 204.832, 212.462, 189.75
195.652, 193.401, 226.176, 225.504
218.975, 193.574, 208.182, 209.692
194.605, 221.43, 208.195, 228.286
196.391, 191.993, 203.546, 201.58
202.405, 184.654, 218.565, 212.346
201.639, 224.887, 187.029, 203.571
202.792, 207.364, 180.876, 173.438
174.458, 178.078, 174.699, 197.495
183.758, 170.04, 130.379, 191.352
146.843, 161.213, 162.055, 166.628
157.592, 157.807, 149.71, 138.857
145.016, 143.089, 159.226, 171.26
169.657, 160.695, 137.561, 134.332
151.411, 155.476, 150.062, 151.844
150.436, 152.129, 158.673, 137.286
129.434, 165.845, 149.244, 137.386
143.728, 156.619, 139.074, 142.644
143.321, 158.816, 147.592, 139.844
133.335, 140.669, 152.611, 131.304
138.572, 155.08, 128.405, 143.675
129.084, 125.422, 148.28, 135.693
142.161, 125.515, 121.343, 118.551
125.146, 115.735, 132.824, 145.874
134.747, 130.442, 134.231, 136.626
132.713, 156.066, 139.82, 101.345
131.799, 118.559, 115.809, 128.819
127.866, 137.279, 126.635, 135.658
130.464, 112.805, 123.968, 117.582
114.613, 112.053, 120.729, 131.423
131.095, 119.704, 126.868, 115.208
144.476, 123.645, 109.02, 121.72
130.795, 136.295, 132.307, 129.688
115.5, 125.242, 111.462, 131.387
126.415, 129.001, 118.382, 106.7
130.784, 124.286, 116.658, 110.703
116.653, 126.114, 116.735, 148.726
128.366, 128.311, 121.77, 126.895
147.846, 110.675, 137.591, 117.229
116.765, 117.682, 122.918, 115.91
114.626, 119.907, 111.492, 114.556
125.75, 121.767, 135.554, 133.113
137.884, 111.746, 126.987, 125.42
118.05, 124.464, 114.396, 124.735
119.94, 125.596, 100.661, 114.62
129.522, 114.705, 118.825, 123.761
114.64, 128.536, 106.666, 124.036
114.816, 135.955, 122.27, 104.608
122.841, 118.714, 119.511, 131.879
126.556, 111.505, 111.44, 126.601
114.678, 110.692, 138.444, 140.857
105.193, 106.233, 136.805, 118.662
113.614, 110.919, 121.617, 105.625
124.613, 113.838, 121.501, 116.769
111.677, 137.92, 122.794, 118.81
117.654, 125.589, 114.539, 118.225
125.552, 113.453, 114.606, 108.544
112.443, 118.251, 126.214, 95.5045
108.903, 97.7829, 117.682, 106.25
113.625, 102.295, 118.76, 110.077
111.046, 119.445, 114.92, 117.862
94.4785, 118.463, 110.003, 135.65
121.529, 138.44, 107.814, 108.817
119.764, 119.298, 116.211, 135.954
96.1518, 105.031, 111.831, 98.9679
110.57, 104.605, 119.007, 125.432
122.664, 108.672, 141.076, 129.609
96.7916, 117.457, 106.963, 113.137
121.751, 119.17, 140.923, 120.659
112.71, 105.431, 99.8243, 118.5
104.598, 115.684, 125.542, 123.494
114.818, 117.586, 125.503, 115.001
115.776, 129.93, 127.873, 113.686
101.987, 113.027, 113.651, 108.494
118.337, 118.599, 123.839, 118.672
107.901, 112.75, 118.539, 117.829
114.052, 111.376, 119.386, 119.968
102.066, 97.8286, 119.111, 127.509
116.792, 131.816, 111.638, 123.136
130.44, 120.795, 124.747, 106.919
105.681, 119.995, 117.522, 112.589
111.989, 116.464, 118.797, 102.898
122.082, 127.816, 107.248, 98.3391
127.613, 90.9478, 122.693, 109.29
129.904, 126.666, 113.603, 114.099
105.741, 113.606, 101.479, 102.545
114.588, 117.775, 115.609, 101.687
122.472, 127.304, 107.334, 105.886
122.768, 121.162, 104.233, 103.103
149.653, 108.128, 104.63, 103.975
112.774, 115.764, 119.028, 126.425
118.861, 113.774, 134.445, 111.548
127.543, 114.759, 118.578, 122.996
126.508, 118.874, 123.118, 90.7764
92.4764, 121.057, 121.392, 113.504
117.353, 113.77, 117.47, 109.217
109.747, 123.107, 140.648, 111.763
119.634, 106.523, 123.616, 118.452
118.816, 116.679, 114.746, 121.916
120.875, 115.152, 119.965, 124.715
98.7304, 109.552, 107.961, 112.076
132.75, 115.716, 113.485, 116.15
114.638, 134.848, 129.33, 119.768
118.592, 105.992, 118.064, 128.543
104.502, 101.579, 107.96, 109.871
128.716, 138.727, 125.153, 123.347
132.949, 120.305, 109.388, 94.3023
117.629, 111.784, 113.275, 119.825
102.907, 126.819, 111.14, 119.079
135.73, 152.307, 125.89, 122.999
153.676, 155.996, 133.762, 111.063
136.983, 164.05, 162.603, 166.662
160.9, 167.075, 160.705, 162.259
177.624, 176.969, 173.618, 185.705
190.962, 214.355, 200.028, 217.954
198.308, 186.254, 156.684, 163.961
209.877, 168.862, 148.664, 162.618
151.94, 165.749, 172.481, 167.089
180.885, 142.887, 145.026, 139.268
131.604, 138.386, 136.047, 127.476
134.953, 119.14, 117.74, 119.58
118.013, 113.905, 116.432, 105.02
114.491, 134.504, 140.841, 108.95
111.859, 130.742, 125.776, 111.008
136.265, 126.448, 115.083, 119.409
111.593, 129.781, 102.619, 138.436
106.909, 119.61, 141.86, 125.425
124.718, 133.871, 118.196, 100.201
131.715, 102.001, 148.769, 109.737
106.675, 116.461, 125.289, 119.777
106.058, 117.165, 118.773, 120.415
150.524, 106.997, 115.742, 109.768
121.333, 98.1097, 118.738, 127.799
112.638, 108.998, 118.126, 113.042
116.38, 125.037, 114.476, 111.59
93.4342, 112.558, 104.467, 121.205
106.436, 108.875, 112.418, 126.404
115.719, 96.8828, 118.081, 127.821
113.902, 128.887, 113.343, 121.501
115.682, 94.7741, 118.046, 113.887
101.884, 115.83, 106.279, 115.998
94.5227, 119.474, 110.943, 110.957
112.811, 117.969, 134.998, 112.762
114.838, 84.8436, 102.792, 109.234
132.828, 133.334, 132.769, 102.464
104.854, 120.617, 120.664, 111.323
107.51, 107.15, 91.9409, 114.847
114.726, 99.5824, 125.753, 104.501
107.225, 110.783, 114.666, 108.88
88.6651, 127.54, 133.723, 108.586
126.86, 123.671, 108.621, 112.774
112.807, 100.28, 111.809, 100.536
112.576, 118.479, 119.947, 126.067
141.089, 107.843, 96.564, 131.715
102.321, 107.895, 130.6, 126.638
103.008, 118.694, 120.751, 111.503
115.837, 110.047, 116.981, 121.596
108.303, 105.659, 89.5764, 120.815
123.487, 111.788, 129.425, 98.3425
97.085, 126.548, 118.84, 108.354
113.804, 102.719, 124.631, 115.913
112.018, 115.516, 100.625, 116.549
105.792, 118.916, 100.434, 119.891
120.78, 122.574, 117.076, 113.804
121.337, 100.29, 106.529, 113.794
98.5113, 102.662, 90.743, 118.462
111.431, 102.848, 117.194, 123.165
119.394, 113.751, 123.614, 115.787
109.494, 106.939, 112.358, 99.7882
115.814, 115.817, 112.506, 133.899
106.59, 119.481, 119.743, 105.659
107.979, 100.666, 115.848, 108.066
110.691, 117.017, 108.565, 107.643
123.12, 116.883, 111.412, 106.122
114.505, 99.7169, 121.451, 129.409
114.896, 123.487, 115.831, 101.603
91.6533, 134.622, 101.476, 118.958
128.157, 141.208, 118.842, 93.5385
124.543, 128.308, 133.387, 94.3936
96.3955, 115.794, 123.814, 111.946
131.975, 109.022, 119.369, 123.029
136.969, 116.35, 131.897, 119.216
109.391, 130.593, 104.905, 111.719
111.228, 105.727, 109.105, 113.385
118.005, 103.021, 103.012, 117.448
120.822, 109.58, 102.18, 108.176
128.666, 119.928, 121.106, 115.669
119.014, 103.907, 103.625, 101.689
113.377, 110.844, 108.164, 123.108
128.505, 114.548, 118.553, 110.69
113.001, 111.921, 111.631, 126.048
121.783, 122.91, 118.743, 118.959
90.2768, 108.678, 122.019, 106.786
126.137, 117.021, 109.741, 107.141
120.189, 101.862, 130.038, 94.8869
102.281, 87.7665, 121.416, 114.965
109.655, 128.323, 109.016, 120.647
111.445, 131.824, 140.392, 108.186
132.907, 101.274, 110.414, 136.619
114.647, 115.916, 125.669, 126.382
142.971, 126.309, 127.749, 127.511
130.616, 125.822, 115.28, 133.668
139.907, 154.776, 161.19, 159.98
175.826, 189.586, 193.035, 217.936
234.432, 265.884, 262.866, 257.496
254.816, 299.081, 346.273, 332.704
451.42, 579.045, 631.864, 729.715
1079.63, 3553.15, 17003.3, 15721.7
7234.39, 8316.14, 8569.52, 4180.9
1314.17, 590.384, 343.878, 270.812
277.881, 234.093, 240.977, 193.927
180.554, 184.092, 210.102, 184.535
201.439, 209.958, 206.166, 183.776
195.975, 232.152, 188.188, 201.998
211.421, 194.8, 174.893, 183.436
199.785, 176.015, 175.575, 149.591
153.183, 142.478, 128.952, 153.147
130.611, 130.961, 163.435, 120.271
128.03, 162.7, 163.818, 181.909
197.257, 190.916, 174.496, 179.81
207.8, 180.068, 167.887, 192.54
190.876, 186.338, 197.022, 242.467
231.105, 211.895, 187.405, 191.833
217.881, 179.947, 151.582, 161.596
163.987, 178.546, 165.652, 169.013
153.432, 148.146, 163.798, 147.761
153.184, 149.367, 135.799, 109.036
138.625, 118.308, 135.446, 121.517
126.04, 118.198, 117.535, 109.486
104.083, 131.966, 98.1577, 132.613
119.245, 99.8814, 113.717, 122.785
120.652, 119.603, 112.16, 129.846
133.192, 108.884, 114.484, 112.485
97.7552, 123.762, 115.67, 118.144
127.911, 118.297, 120.904, 128.557
139.312, 122.751, 119.037, 111.856
111.271, 127.71, 130.041, 108.707
119.357, 127.707, 121.9, 114.386
143.675, 147.933, 147.434, 140.592
154.742, 170.718, 173.877, 175.02
248.468, 266.396, 276.755, 335.481
384.106, 362.649, 377.296, 370.022
322.754, 306.898, 270.917, 254.292
219.924, 190.933, 152.768, 144.776
150.868, 138.347, 138.003, 120.816
143.657, 125.793, 123.167, 131.576
128.727, 135.492, 105.66, 119.966
107.496, 121.653, 123.044, 120.625
106.104, 140.661, 122.357, 112.654
110.571, 124.399, 98.7957, 105.644
150.064, 131.925, 137.621, 150.411
156.613, 135.338, 146.911, 131.494
130.334, 120.666, 108.825, 108.307
126.79, 110.769, 118.07, 136.7
119.442, 109.122, 116.596, 123.69
105.238, 116.617, 117.68, 107.612
97.766, 98.6393, 98.1618, 122.347
113.461, 125.726, 119.002, 91.9926
117.802, 99.3371, 92.6088, 135.68
99.6642, 129.909, 123.608, 128.945
116.667, 92.8562, 119.926, 98.6128
117.503, 102.489, 98.6107, 95.7475
119.64, 111.726, 114.587, 129.018
110.803, 113.877, 131.694, 120.898
127.99, 127.092, 99.9555, 108.694
116.558, 108.967, 128.04, 126.616
112.985, 117.763, 94.3873, 96.5448
114.804, 110.748, 110.36, 114.697
112.397, 105.97, 110.575, 115.771
104.703, 100.304, 110.602, 123.273
125.508, 110.625, 119.951, 93.8979
109.983, 122.636, 109.876, 102.91
94.5607, 102.397, 110.904, 116.913
106.363, 114.773, 118.072, 120.027
130.076, 119.318, 87.4693, 112.959
111.707, 123.6, 105.724, 104.928
106.49, 106.641, 124.365, 107.75
142.621, 121.583, 102.757, 98.73
130.776, 122.233, 103.812, 132.652
110.881, 96.7303, 111.455, 113.686
109.428, 126.376, 106.569, 111.797
122.757, 89.3714, 102.782, 115.6
110.45, 105.53, 116.724, 103.657
110.147, 108.902, 112.442, 122.991
122.908, 107.893, 109.991, 102.55
118.405, 98.9224, 102.775, 121.01
117.8, 110.309, 103.603, 100.03
111.426, 126.977, 116.072, 88.8403
105.632, 104.822, 118.06, 123.85
111.549, 120.58, 115.962, 98.7599
95.6213, 104.822, 94.7969, 121.846
121.792, 111.637, 124.334, 103.925
100.782, 103.001, 133.821, 104.831
118.77, 118.553, 101.652, 102.921
122.259, 108.679, 103.505, 106.569
120.498, 104.876, 114.848, 90.2509
103.015, 109.391, 92.8188, 105.551
97.5901, 122.123, 111.023, 100.376
120.723, 93.709, 101.954, 125.889
111.955, 99.4367, 122.687, 99.6767
124.325, 103.594, 106.629, 124.775
105.767, 117.525, 98.6487, 106.394
111.176, 104.91, 106.741, 95.9515
104.574, 106.648, 108.273, 115.819
114.869, 99.8701, 107.843, 103.055
103.666, 111.733, 105.502, 119.954
119.449, 107.267, 105.854, 95.1559
102.734, 103.964, 109.728, 110.018
105.209, 91.7389, 92.9673, 93.5644
100.083, 110.867, 97.905, 109.792
104.44, 99.9202, 113.456, 106.236
107.639, 90.6152, 106.687, 94.4225
101.123, 114.638, 119.762, 115.699
106.808, 108.235, 108.329, 110.642
114.676, 96.7976, 91.7823, 91.7841
91.6634, 94.7566, 99.2501, 109.878
96.4669, 112.814, 88.3779, 102.794
94.5559, 115.314, 95.0254, 110.72
105.732, 116.577, 84.4457, 94.4382
93.0021, 98.4152, 103.481, 113.805
104.962, 98.5886, 96.7335, 102.088
99.702, 113.658, 118.652, 104.775
100.114, 90.6849, 122.742, 125.814
101.925, 96.7992, 105.04, 105.078
95.3939, 111.579, 115.671, 94.8599
101.011, 100.476, 102.778, 113.483
108.839, 102.858, 95.9371, 114.306
98.1172, 103.062, 117.214, 108.951
97.5193, 97.8158, 100.642, 105.792
109.878, 105.006, 117.491, 100.087
99.4953, 99.8707, 102.788, 106.041
98.5465, 96.1084, 108.55, 102.093
104.792, 104.674, 92.3071, 122.612
98.5585, 104.776, 97.0641, 94.9365
105.822, 92.7865, 99.8672, 109.732
103.143, 86.8361, 96.6779, 137.283
102.808, 107.004, 104.649, 113.926
107.835, 117.893, 109.13, 113.524
103.943, 94.6622, 106.488, 125.087
94.8471, 92.8665, 106.571, 101.762
118.956, 108.983, 113.393, 114.699
110.921, 124.932, 105.564, 130.3
109.018, 124.643, 113.976, 100.795
124.588, 97.5934, 91.8045, 93.361
111.246, 111.378, 102.825, 111.67
103.636, 110.343, 99.5994, 109.486
120.919, 105.513, 106.815, 105.814
105.832, 96.0857, 105.837, 104.156
111.653, 113.569, 116.689, 122.888
124.293, 117.601, 97.6217, 126.647
111.935, 101.686, 106.675, 104.627
95.7684, 112.179, 129.729, 103.981
114.394, 107.806, 106.998, 107.179
121.463, 106.039, 91.6612, 129.671
100.957, 118.953, 100.826, 87.7971
104.957, 100.775, 91.6991, 124.724
113.721, 115.333, 119.522, 111.334
94.419, 99.6864, 123.693, 107.986
117.515, 100.643, 101.647, 93.9655
126.73, 113.622, 111.939, 109.616
95.7316, 118.907, 98.4858, 111.399
122.27, 110.866, 115.033, 103.363
103.773, 116.835, 113.602, 99.7003
99.6681, 122.6, 131.487, 111.513
107.252, 103.847, 106.401, 106.769
102.764, 110.992, 112.735, 97.9488
115.608, 130.118, 92.8561, 103.266
118.834, 93.4789, 111.43, 102.299
128.207, 111.449, 93.4497, 117.902
104.108, 128.494, 111.273, 112.414
100.3, 116.595, 105.398, 110.76
107.188, 80.9458, 120.805, 98.8091
87.2474, 120.116, 105.739, 128.367
112.087, 106.363, 140.709, 115.692
119.816, 134.89, 114.973, 104.798
140.558, 105.891, 141.544, 115.676
122.97, 121.879, 121.751, 92.3255
101.878, 91.517, 114.793, 100.085
109.846, 100.778, 107.358, 90.0258
108.847, 118.422, 94.4615, 104.621
113.875, 111.843, 126.71, 108.841
129.558, 117.842, 98.5647, 116.656
107.874, 131.464, 108.11, 113.027
111.733, 100.859, 106.88, 121.546
98.6917, 107.264, 96.9706, 98.0117
114.636, 115.953, 86.9754, 111.379
116.689, 93.6577, 117.52, 119.955
114.074, 117.222, 96.8622, 112.297
108.359, 112.586, 127.205, 102.614
104.387, 115.169, 118.814, 95.9627
124.435, 119.856, 94.8476, 86.162
104.902, 109.04, 118.376, 91.7535
127.428, 103.145, 95.7875, 112.159
119.599, 101.523, 100.192, 120.338
106.622, 112.788, 107.394, 117.927
99.5734, 122.836, 97.8002, 114.44
103.933, 117.55, 112.736, 110.451
97.7945, 114.199, 111.068, 101.655
96.0816, 109.781, 96.6649, 103.275
107.545, 120.016, 114.687, 110.15
99.5753, 103.224, 112.237, 116.697
120.856, 100.849, 98.6502, 106.121
98.2585, 116.719, 117.29, 101.318
119.936, 117.039, 92.4388, 126.373
123.524, 114.938, 106.169, 124.329
125.933, 126.255, 125.757, 117.973
102.912, 116.651, 114.914, 116.211
120.829, 107.853, 118.025, 93.3344
124.526, 105.803, 115.674, 110.012
107.274, 97.6454, 109.072, 136.928
129.034, 104.365, 137.52, 114.777
106.915, 107.614, 122.548, 93.2122
130.522, 106.93, 92.1901, 138.945
106.633, 103.957, 115.999, 126.466
116.108, 117.216, 126.266, 95.6477
100.408, 109.475, 127.578, 98.1721
136.865, 107.544, 96.7089, 103.087
118.114, 136.486, 104.5, 115.127
119.701, 126.49, 128.694, 132.438
113.015, 120.735, 111.776, 113.555
112.551, 122.499, 112.491, 119.979
132, 113.995, 128.671, 140.383
169.17, 121.936, 114.677, 100.476
129.71, 99.1008, 111.722, 107.086
102.482, 112.742, 117.046, 111.14
113.635, 107.153, 128.906, 105.609
118.579, 117.484, 127.669, 122.762
101.455, 118.924, 121.859, 94.9513
119.748, 99.8848, 100.892, 115.007
132.009, 119.24, 110.264, 107.401
115.637, 112.95, 129.978, 114.636
112.937, 116.114, 97.5686, 113.534
121.405, 121.915, 127.64, 119.473
113.137, 114.075, 115.603, 118.809
124.677, 123.527, 128.689, 122.505
121.141, 119.926, 130.02, 122.652
107.999, 124.247, 117.02, 125.217
132.725, 109.949, 104.834, 125.64
149.008, 128.224, 116.071, 109.79
114.83, 123.93, 127.6, 112.824
97.3081, 114.057, 127.841, 118.577
112.983, 103.217, 131.711, 120.454
118.706, 113.116, 118.211, 126.695
104.586, 120.995, 95.0069, 133.616
112.929, 137.749, 127.856, 121.744
144.032, 131.549, 144.598, 130.669
127.225, 133.52, 123.99, 114.991
131.923, 137.139, 163.129, 153.984
147.86, 184.796, 137.932, 167.125
171.99, 180.793, 192.296, 181.855
192.381, 201.171, 220.46, 216.099
248.918, 247.476, 245.361, 279.297
304.048, 280.029, 275.845, 265.993
272.211, 279.307, 246.778, 254.095
218.659, 223, 230.623, 224.469
219.416, 204.184, 195.343, 187.19
159.907, 177.032, 168.771, 152.31
155.141, 171.107, 155.239, 137.334
172.406, 156.95, 155.465, 155.475
162.114, 148.186, 144.602, 127.905
146.032, 159.867, 169.788, 131.252
148.51, 152.304, 158.628, 160.283
